File: data/Sokol_Ar_MCM41_Isotherm.dat
#      P/P0	Ar/MCM-41 nsorb [mmol/g]
0	        0
0.00566005  0.0909091
0.00200279  0.363636
0.00221177  0.909091
0.00245559  1.54545
0.00266458  2.09091
0.00282132  2.5
0.00687914  3.09091
0.0244688  4
0.0400383  4.63636
0.0536747  5.22727
0.0634274  5.68182
0.0769941  6.09091
0.0924591  6.45455
0.104075  6.77273
0.123389  7.18182
0.136956  7.59091
0.160101  8
0.181331  8.40909
0.19488  8.77273
0.204615  9.18182
0.212365  9.40909
0.225897  9.72727
0.235632  10.1364
0.247301  10.5909
0.253117  10.7727
0.257071  11.0909
0.268791  11.6818
0.268913  12
0.284413  12.4545
0.284674  13.1364
0.288593  13.3636
0.290648  13.7273
0.300418  14.2273
0.30054  14.5455
0.310362  15.1818
0.312487  15.7273
0.318548  16.5455
0.322553  17
0.324643  17.4545
0.332463  17.8636
0.344131  18.3182
0.359631  18.7727
0.378892  19.0455
0.398137  19.2727
0.40775  19.3636
0.440509  19.8636
0.476924  19.9091
0.570916  20.2273
0.638001  20.3182
0.751132  20.5909
0.802891  20.6818
0.900714  21
0.929415  20.9091
0.967729  20.9091
0.975496  21.1818
0.992912  21.6364
0.998746  21.8636
1.00084  22.3182
1.00873  22.9091